File: V44/Daten/UXD/Detektorscan.UXD
; C:\DIFFDAT1\Praktikum\Boussard_Oppoli\Detektorscan.raw(Diffrac Plus V1.01 file) converted by XCH V1.0
_FILEVERSION=2
_SITE='Deutschland'
_USER='Administrator'
_GONIOMETER_CODE=4885
; D8 Theta/Theta; Special
_SAMPLE_CHANGER_CODE=0
_ATTACHMENTS_CODE=0
_GONIOMETER_RADIUS=350
_FIXED_DIVSLIT=0.600000
_FIXED_SAMPLESLIT=0.000000
_FIXED_DETSLIT=11.66
_MONOCHROMATOR=0
; None
_THIN_FILM='N'
_BETA_FILTER='Y'
_FIXED_ANTISLIT=8.340000
_ANALYZER_CODE=0
; None
_DATEMEASURED='22-Apr-2024 10:01:31'
_WL_UNIT='A'
_WL1=1.540600
_WL2=1.544390
_WL3=1.392220
_WLRATIO=0.500000
_ANODE='Cu'
; (Data for Range number 1)
_DRIVE='2THETA'
_STEPTIME=1.000000
_STEPSIZE=0.002000
_STEPMODE='S'
_START=-0.100000
_THETA=0.000000
_2THETA=-0.100000
_KHI=0.000000
_PHI=92.46
_X=0.000000
_Y=0.000000
_Z=-15
_DIVERGENCE=0.000000
_ANTISCATTER=0.000000
_DETECTOR=5
_DETECTORSLIT='unkn'
_AUX1=0.000000
_AUX2=0.000000
_AUX3=0.000000
_TIMESTARTED=2.000000
_TEMP_RATE=-1.000000
_TEMP_DELAY=-1.000000
_KV=40
_MA=35
_RANGE_WL=1.540600
_3DPLANE=0
_GONIOMETER=-0.100000
_PSDCHANNEL0=0
_2THETACOUNTS
  -0.1000     21203
  -0.0980     21240
  -0.0960     22501
  -0.0940     23815
  -0.0920     25492
  -0.0900     27602
  -0.0880     29218
  -0.0860     31737
  -0.0840     34053
  -0.0820     37122
  -0.0800     39510
  -0.0780     41579
  -0.0760     45029
  -0.0740     48210
  -0.0720     51154
  -0.0700     55067
  -0.0680     59331
  -0.0660     64291
  -0.0640     69925
  -0.0620     76621
  -0.0600     84152
  -0.0580     91899
  -0.0560    100771
  -0.0540    109612
  -0.0520    120786
  -0.0500    131321
  -0.0480    143392
  -0.0460    155197
  -0.0440    168208
  -0.0420    182906
  -0.0400    194967
  -0.0380    234330
  -0.0360    239338
  -0.0340    252302
  -0.0320    270962
  -0.0300    284645
  -0.0280    294670
  -0.0260    304537
  -0.0240    316213
  -0.0220    321088
  -0.0200    323955
  -0.0180    326096
  -0.0160    329359
  -0.0140    335118
  -0.0120    340711
  -0.0100    347023
  -0.0080    357846
  -0.0060    365422
  -0.0040    377470
  -0.0020    392061
   0.0000    404543
   0.0020    418234
   0.0040    429033
   0.0060    438466
   0.0080    454060
   0.0100    461028
   0.0120    465895
   0.0140    470066
   0.0160    477105
   0.0180    470437
   0.0200    464583
   0.0220    457078
   0.0240    447717
   0.0260    439501
   0.0280    419727
   0.0300    405231
   0.0320    384264
   0.0340    365565
   0.0360    342686
   0.0380    314049
   0.0400    291471
   0.0420    270022
   0.0440    245864
   0.0460    225253
   0.0480    201569
   0.0500    185484
   0.0520    169842
   0.0540    154619
   0.0560    128796
   0.0580    124894
   0.0600    115892
   0.0620    107607
   0.0640    100229
   0.0660     94473
   0.0680     90356
   0.0700     86412
   0.0720     83324
   0.0740     80607
   0.0760     77045
   0.0780     72842
   0.0800     69185
   0.0820     65570
   0.0840     61425
   0.0860     57847
   0.0880     53832
   0.0900     50633
   0.0920     47850
   0.0940     45056
   0.0960     43070
   0.0980     41286
   0.1000     40370