File: V44/Daten/UXD/MessungProbeDiffus.UXD
; C:\DIFFDAT1\Praktikum\Boussard_Oppoli\MessungProbeDiffus.raw(Diffrac Plus V1.01 file) converted by XCH V1.0
_FILEVERSION=2
_SITE='Deutschland'
_USER='Administrator'
_GONIOMETER_CODE=4885
; D8 Theta/Theta; Special
_SAMPLE_CHANGER_CODE=0
_ATTACHMENTS_CODE=0
_GONIOMETER_RADIUS=350
_FIXED_DIVSLIT=0.600000
_FIXED_SAMPLESLIT=0.000000
_FIXED_DETSLIT=11.66
_MONOCHROMATOR=0
; None
_THIN_FILM='N'
_BETA_FILTER='Y'
_FIXED_ANTISLIT=8.340000
_ANALYZER_CODE=0
; None
_DATEMEASURED='22-Apr-2024 11:58:23'
_WL_UNIT='A'
_WL1=1.540600
_WL2=1.544390
_WL3=1.392220
_WLRATIO=0.500000
_ANODE='Cu'
; (Data for Range number 1)
_DRIVE='THETA'
_STEPTIME=5.000660
_STEPSIZE=0.005000
_STEPMODE='C'
_START=0.000000
_THETA=0.000000
_2THETA=0.100000
_KHI=0.000000
_PHI=92.46
_X=-0.513000
_Y=-1.200000
_Z=0.238000
_DIVERGENCE=0.000000
_ANTISCATTER=0.000000
_DETECTOR=5
_DETECTORSLIT='unkn'
_AUX1=0.000000
_AUX2=0.000000
_AUX3=0.000000
_TIMESTARTED=2.000000
_TEMP_RATE=-1.000000
_TEMP_DELAY=-1.000000
_KV=40
_MA=35
_RANGE_WL=1.540600
_3DPLANE=0
_GONIOMETER=0.097500
_PSDCHANNEL0=0
_2THETACOUNTS
   0.0000    152956
   0.0100    100096
   0.0200     79578
   0.0300     69852
   0.0400     47439
   0.0500     26696
   0.0600     28679
   0.0700     28539
   0.0800     28916
   0.0900     23121
   0.1000     20894
   0.1100     18685
   0.1200     12698
   0.1300      9757
   0.1400      8026
   0.1500      6296
   0.1600      5302
   0.1700      4670
   0.1800      4247
   0.1900      3514
   0.2000      2715
   0.2100      2059
   0.2200      1533
   0.2300      1037
   0.2400       763
   0.2500       461
   0.2600       332
   0.2700       257
   0.2800       239
   0.2900       175
   0.3000       162
   0.3100       135
   0.3200       140
   0.3300       133
   0.3400       110
   0.3500        71
   0.3600        81
   0.3700        72
   0.3800        61
   0.3900        53
   0.4000        58
   0.4100        50
   0.4200        44
   0.4300        44
   0.4400        55
   0.4500        31
   0.4600        32
   0.4700        32
   0.4800        27
   0.4900        34
   0.5000        32
   0.5100        28
   0.5200        18
   0.5300        19
   0.5400        16
   0.5500        16
   0.5600        20
   0.5700        24
   0.5800        14
   0.5900        17
   0.6000        18
   0.6100         7
   0.6200        16
   0.6300        18
   0.6400        15
   0.6500        23
   0.6600        15
   0.6700        14
   0.6800         8
   0.6900        11
   0.7000        14
   0.7100         3
   0.7200         5
   0.7300        10
   0.7400        13
   0.7500        10
   0.7600         8
   0.7700         8
   0.7800        13
   0.7900         9
   0.8000         6
   0.8100        10
   0.8200         3
   0.8300         7
   0.8400         4
   0.8500        10
   0.8600         7
   0.8700         3
   0.8800         2
   0.8900         5
   0.9000        10
   0.9100         4
   0.9200         5
   0.9300         3
   0.9400         7
   0.9500         5
   0.9600         3
   0.9700         3
   0.9800         6
   0.9900         4
   1.0000         2
   1.0100         4
   1.0200         1
   1.0300         0
   1.0400         3
   1.0500         0
   1.0600         2
   1.0700         3
   1.0800         2
   1.0900         3
   1.1000         1
   1.1100         2
   1.1200         0
   1.1300         1
   1.1400         1
   1.1500         0
   1.1600         1
   1.1700         0
   1.1800         4
   1.1900         1
   1.2000         0
   1.2100         2
   1.2200         0
   1.2300         2
   1.2400         1
   1.2500         2
   1.2600         1
   1.2700         2
   1.2800         3
   1.2900         1
   1.3000         0
   1.3100         0
   1.3200         1
   1.3300         1
   1.3400         2
   1.3500         1
   1.3600         1
   1.3700         0
   1.3800         1
   1.3900         0
   1.4000         0
   1.4100         0
   1.4200         1
   1.4300         2
   1.4400         0
   1.4500         0
   1.4600         0
   1.4700         0
   1.4800         1
   1.4900         0
   1.5000         0
   1.5100         0
   1.5200         0
   1.5300         1
   1.5400         1
   1.5500         0
   1.5600         0
   1.5700         0
   1.5800         1
   1.5900         0
   1.6000         0
   1.6100         0
   1.6200         0
   1.6300         0
   1.6400         1
   1.6500         1
   1.6600         0
   1.6700         1
   1.6800         0
   1.6900         1
   1.7000         0
   1.7100         1
   1.7200         0
   1.7300         1
   1.7400         0
   1.7500         0
   1.7600         0
   1.7700         0
   1.7800         1
   1.7900         0
   1.8000         0
   1.8100         0
   1.8200         0
   1.8300         0
   1.8400         0
   1.8500         0
   1.8600         0
   1.8700         1
   1.8800         0
   1.8900         0
   1.9000         1
   1.9100         0
   1.9200         1
   1.9300         0
   1.9400         0
   1.9500         1
   1.9600         0
   1.9700         0
   1.9800         0
   1.9900         0
   2.0000         0
   2.0100         0
   2.0200         0
   2.0300         0
   2.0400         0
   2.0500         0
   2.0600         0
   2.0700         0
   2.0800         0
   2.0900         1
   2.1000         0
   2.1100         0
   2.1200         0
   2.1300         0
   2.1400         0
   2.1500         0
   2.1600         0
   2.1700         0
   2.1800         0
   2.1900         0
   2.2000         0
   2.2100         0
   2.2200         0
   2.2300         0
   2.2400         1
   2.2500         1
   2.2600         0
   2.2700         0
   2.2800         0
   2.2900         0
   2.3000         0
   2.3100         0
   2.3200         0
   2.3300         0
   2.3400         0
   2.3500         0
   2.3600         1
   2.3700         0
   2.3800         0
   2.3900         0
   2.4000         0
   2.4100         0
   2.4200         0
   2.4300         0
   2.4400         0
   2.4500         0
   2.4600         0
   2.4700         0
   2.4800         0
   2.4900         0
   2.5000         0