File: V44/Daten/UXD/MessungProbe.UXD
; C:\DIFFDAT1\Praktikum\Boussard_Oppoli\MessungProbe.raw(Diffrac Plus V1.01 file) converted by XCH V1.0
_FILEVERSION=2
_SITE='Deutschland'
_USER='Administrator'
_GONIOMETER_CODE=4885
; D8 Theta/Theta; Special
_SAMPLE_CHANGER_CODE=0
_ATTACHMENTS_CODE=0
_GONIOMETER_RADIUS=350
_FIXED_DIVSLIT=0.600000
_FIXED_SAMPLESLIT=0.000000
_FIXED_DETSLIT=11.66
_MONOCHROMATOR=0
; None
_THIN_FILM='N'
_BETA_FILTER='Y'
_FIXED_ANTISLIT=8.340000
_ANALYZER_CODE=0
; None
_DATEMEASURED='22-Apr-2024 11:11:20'
_WL_UNIT='A'
_WL1=1.540600
_WL2=1.544390
_WL3=1.392220
_WLRATIO=0.500000
_ANODE='Cu'
; (Data for Range number 1)
_DRIVE='THETA'
_STEPTIME=5.000660
_STEPSIZE=0.005000
_STEPMODE='C'
_START=0.000000
_THETA=0.000000
_2THETA=0.000000
_KHI=0.000000
_PHI=92.46
_X=-0.513000
_Y=-1.200000
_Z=0.238000
_DIVERGENCE=0.000000
_ANTISCATTER=0.000000
_DETECTOR=5
_DETECTORSLIT='unkn'
_AUX1=0.000000
_AUX2=0.000000
_AUX3=0.000000
_TIMESTARTED=3.000000
_TEMP_RATE=-1.000000
_TEMP_DELAY=-1.000000
_KV=40
_MA=35
_RANGE_WL=1.540600
_3DPLANE=0
_GONIOMETER=-0.002400
_PSDCHANNEL0=0
_2THETACOUNTS
   0.0000   1222960
   0.0100   1687960
   0.0200    924426
   0.0300    552641
   0.0400    443451
   0.0500    428098
   0.0600    424132
   0.0700    450474
   0.0800    491517
   0.0900    522818
   0.1000    546124
   0.1100    589555
   0.1200    632744
   0.1300    674621
   0.1400    715090
   0.1500    751023
   0.1600    740712
   0.1700    744582
   0.1800    786968
   0.1900    816347
   0.2000    864532
   0.2100    819128
   0.2200    732105
   0.2300    467521
   0.2400    194684
   0.2500    102266
   0.2600    109702
   0.2700     93195
   0.2800     49174
   0.2900     26857
   0.3000     34842
   0.3100     41005
   0.3200     29022
   0.3300     14511
   0.3400     12625
   0.3500     18423
   0.3600     19230
   0.3700     12952
   0.3800      6647
   0.3900      6935
   0.4000     10353
   0.4100     10192
   0.4200      6826
   0.4300      3773
   0.4400      4112
   0.4500      5831
   0.4600      5987
   0.4700      3972
   0.4800      2284
   0.4900      2365
   0.5000      3447
   0.5100      3547
   0.5200      2558
   0.5300      1496
   0.5400      1388
   0.5500      1996
   0.5600      2277
   0.5700      1786
   0.5800      1021
   0.5900       850
   0.6000      1201
   0.6100      1420
   0.6200      1256
   0.6300       742
   0.6400       518
   0.6500       724
   0.6600      1033
   0.6700       942
   0.6800       561
   0.6900       399
   0.7000       478
   0.7100       712
   0.7200       694
   0.7300       466
   0.7400       292
   0.7500       335
   0.7600       414
   0.7700       482
   0.7800       365
   0.7900       224
   0.8000       216
   0.8100       270
   0.8200       321
   0.8300       289
   0.8400       176
   0.8500       139
   0.8600       184
   0.8700       222
   0.8800       202
   0.8900       142
   0.9000       102
   0.9100       121
   0.9200       149
   0.9300       153
   0.9400       126
   0.9500        82
   0.9600        73
   0.9700       104
   0.9800       133
   0.9900       121
   1.0000        74
   1.0100        59
   1.0200        74
   1.0300        95
   1.0400        80
   1.0500        54
   1.0600        44
   1.0700        43
   1.0800        85
   1.0900        91
   1.1000        50
   1.1100        27
   1.1200        23
   1.1300        35
   1.1400        47
   1.1500        27
   1.1600        21
   1.1700        21
   1.1800        25
   1.1900        37
   1.2000        34
   1.2100        25
   1.2200        18
   1.2300        21
   1.2400        23
   1.2500        22
   1.2600        24
   1.2700        18
   1.2800        10
   1.2900        16
   1.3000        20
   1.3100        20
   1.3200        10
   1.3300        15
   1.3400        13
   1.3500        12
   1.3600        11
   1.3700        11
   1.3800        17
   1.3900        11
   1.4000        12
   1.4100        14
   1.4200        11
   1.4300        11
   1.4400         3
   1.4500         6
   1.4600        13
   1.4700         4
   1.4800         4
   1.4900         7
   1.5000         7
   1.5100         3
   1.5200         8
   1.5300         2
   1.5400         2
   1.5500         8
   1.5600         7
   1.5700         4
   1.5800         5
   1.5900         6
   1.6000         0
   1.6100         3
   1.6200         2
   1.6300         2
   1.6400         4
   1.6500         1
   1.6600         5
   1.6700         7
   1.6800         2
   1.6900         1
   1.7000         2
   1.7100         0
   1.7200         4
   1.7300         4
   1.7400         2
   1.7500         3
   1.7600         2
   1.7700         3
   1.7800         0
   1.7900         1
   1.8000         0
   1.8100         4
   1.8200         3
   1.8300         0
   1.8400         2
   1.8500         2
   1.8600         1
   1.8700         3
   1.8800         0
   1.8900         0
   1.9000         2
   1.9100         0
   1.9200         0
   1.9300         1
   1.9400         0
   1.9500         2
   1.9600         1
   1.9700         2
   1.9800         4
   1.9900         1
   2.0000         0
   2.0100         1
   2.0200         0
   2.0300         3
   2.0400         1
   2.0500         1
   2.0600         0
   2.0700         0
   2.0800         0
   2.0900         1
   2.1000         0
   2.1100         1
   2.1200         1
   2.1300         0
   2.1400         0
   2.1500         1
   2.1600         0
   2.1700         1
   2.1800         0
   2.1900         1
   2.2000         0
   2.2100         1
   2.2200         0
   2.2300         1
   2.2400         0
   2.2500         2
   2.2600         0
   2.2700         0
   2.2800         0
   2.2900         1
   2.3000         0
   2.3100         1
   2.3200         2
   2.3300         1
   2.3400         1
   2.3500         0
   2.3600         2
   2.3700         0
   2.3800         1
   2.3900         1
   2.4000         0
   2.4100         0
   2.4200         0
   2.4300         1
   2.4400         0
   2.4500         0
   2.4600         0
   2.4700         0
   2.4800         1
   2.4900         0
   2.5000         0